SpectraSuite Data File
++++++++++++++++++++++++++++++++++++
Date: Mon May 06 14:15:05 CDT 2013
User: Students
Dark Spectrum Present: Yes
Reference Spectrum Present: Yes
Number of Sampled Component Spectra: 1
Spectrometers: USB4H00887
Integration Time (usec): 25000 (USB4H00887)
Spectra Averaged: 10 (USB4H00887)
Boxcar Smoothing: 10 (USB4H00887)
Correct for Electrical Dark: No (USB4H00887)
Strobe/Lamp Enabled: No (USB4H00887)
Correct for Detector Non-linearity: No (USB4H00887)
Correct for Stray Light: No (USB4H00887)
Number of Pixels in Processed Spectrum: 3648
>>>>>Begin Processed Spectral Data<<<<<
345.83	-0.315
346.05	-0.315
346.26	-0.315
346.48	-0.000
346.70	-0.379
346.92	-0.000
347.14	0.481
347.35	1.258
347.57	-0.488
347.79	0.025
348.01	0.191
348.23	0.418
348.44	0.723
348.66	1.459
348.88	0.638
349.10	0.963
349.32	0.725
349.53	0.508
349.75	0.441
349.97	0.553
350.19	0.860
350.41	-0.000
350.62	1.514
350.84	-0.000
351.06	-0.000
351.28	-0.000
351.50	-0.000
351.71	-0.000
351.93	-0.000
352.15	-0.000
352.37	-0.000
352.58	-0.000
352.80	-0.000
353.02	-0.000
353.24	-0.000
353.46	-0.000
353.67	-0.000
353.89	-0.000
354.11	-0.000
354.33	-0.000
354.54	-0.000
354.76	-0.000
354.98	-0.000
355.20	-0.000
355.41	-0.000
355.63	-0.000
355.85	-0.000
356.07	-0.000
356.28	-0.000
356.50	-0.000
356.72	-0.000
356.94	-0.000
357.15	-0.000
357.37	1.897
357.59	-0.000
357.81	1.029
358.02	1.365
358.24	1.137
358.46	1.746
358.68	1.313
358.89	0.903
359.11	1.167
359.33	1.255
359.55	0.858
359.76	1.218
359.98	2.076
360.20	-0.000
360.42	-0.000
360.63	-0.000
360.85	2.045
361.07	-0.000
361.29	3.048
361.50	-0.000
361.72	-0.000
361.94	-0.000
362.15	-0.000
362.37	-0.000
362.59	-0.000
362.81	-0.000
363.02	-0.000
363.24	-0.000
363.46	-0.000
363.68	-0.000
363.89	-0.000
364.11	-0.000
364.33	-0.000
364.54	-0.000
364.76	-0.000
364.98	-0.000
365.20	-0.000
365.41	-0.000
365.63	-0.000
365.85	-0.000
366.06	-0.000
366.28	-0.000
366.50	-0.000
366.71	-0.000
366.93	-0.000
367.15	-0.000
367.37	2.858
367.58	0.895
367.80	1.267
368.02	1.569
368.23	-0.000
368.45	-0.000
368.67	-0.000
368.88	-0.000
369.10	-0.000
369.32	-0.000
369.53	-0.000
369.75	-0.000
369.97	-0.000
370.19	-0.000
370.40	-0.000
370.62	-0.000
370.84	-0.000
371.05	-0.000
371.27	1.488
371.49	1.213
371.70	1.066
371.92	0.976
372.14	1.245
372.35	1.000
372.57	1.224
372.79	1.056
373.00	1.064
373.22	1.104
373.44	0.910
373.65	1.167
373.87	2.618
374.09	1.240
374.30	0.874
374.52	0.964
374.74	1.084
374.95	1.107
375.17	1.262
375.39	1.097
375.60	1.304
375.82	1.640
376.04	2.366
376.25	-0.000
376.47	-0.000
376.68	-0.000
376.90	-0.000
377.12	-0.000
377.33	-0.000
377.55	-0.000
377.77	-0.000
377.98	-0.000
378.20	-0.000
378.42	-0.000
378.63	-0.000
378.85	-0.000
379.07	-0.000
379.28	-0.000
379.50	-0.000
379.71	-0.000
379.93	-0.000
380.15	-0.000
380.36	-0.000
380.58	-0.000
380.80	-0.000
381.01	-0.000
381.23	-0.000
381.44	-0.000
381.66	-0.000
381.88	-0.000
382.09	-0.000
382.31	-0.000
382.53	-0.000
382.74	-0.000
382.96	-0.000
383.17	-0.000
383.39	-0.000
383.61	-0.000
383.82	-0.000
384.04	-0.000
384.25	-0.000
384.47	-0.000
384.69	-0.000
384.90	-0.000
385.12	-0.000
385.33	-0.000
385.55	-0.000
385.77	-0.000
385.98	-0.000
386.20	-0.000
386.41	-0.000
386.63	-0.000
386.85	-0.000
387.06	-0.000
387.28	-0.000
387.49	-0.000
387.71	-0.000
387.93	-0.000
388.14	-0.000
388.36	-0.000
388.57	-0.000
388.79	2.662
389.01	1.682
389.22	1.546
389.44	1.884
389.65	1.548
389.87	1.348
390.08	1.208
390.30	1.354
390.52	1.575
390.73	2.240
390.95	2.207
391.16	1.766
391.38	2.015
391.59	-0.000
391.81	-0.000
392.03	-0.000
392.24	-0.000
392.46	-0.000
392.67	-0.000
392.89	-0.000
393.10	-0.000
393.32	-0.000
393.53	-0.000
393.75	-0.000
393.97	-0.000
394.18	-0.000
394.40	-0.000
394.61	-0.000
394.83	-0.000
395.04	-0.000
395.26	-0.000
395.47	-0.000
395.69	-0.000
395.91	-0.000
396.12	-0.000
396.34	-0.000
396.55	-0.000
396.77	-0.000
396.98	-0.000
397.20	-0.000
397.41	-0.000
397.63	-0.000
397.84	-0.000
398.06	-0.000
398.27	2.904
398.49	1.864
398.71	-0.000
398.92	-0.000
399.14	-0.000
399.35	-0.000
399.57	-0.000
399.78	-0.000
400.00	-0.000
400.21	2.087
400.43	1.489
400.64	1.416
400.86	1.263
401.07	1.383
401.29	1.543
401.50	1.947
401.72	2.923
401.93	-0.000
402.15	-0.000
402.36	-0.000
402.58	-0.000
402.79	-0.000
403.01	-0.000
403.22	-0.000
403.44	-0.000
403.65	-0.000
403.87	-0.000
404.08	-0.000
404.30	-0.000
404.51	-0.000
404.73	-0.000
404.94	-0.000
405.16	-0.000
405.37	-0.000
405.59	-0.000
405.80	-0.000
406.02	-0.000
406.23	-0.000
406.45	-0.000
406.66	-0.000
406.88	-0.000
407.09	-0.000
407.31	-0.000
407.52	-0.000
407.74	-0.000
407.95	-0.000
408.17	-0.000
408.38	-0.000
408.60	-0.000
408.81	-0.000
409.03	-0.000
409.24	-0.000
409.45	-0.000
409.67	-0.000
409.88	-0.000
410.10	-0.000
410.31	-0.000
410.53	-0.000
410.74	2.182
410.96	-0.000
411.17	-0.000
411.39	-0.000
411.60	-0.000
411.82	-0.000
412.03	-0.000
412.24	-0.000
412.46	-0.000
412.67	-0.000
412.89	-0.000
413.10	-0.000
413.32	-0.000
413.53	-0.000
413.75	2.554
413.96	-0.000
414.17	2.484
414.39	1.854
414.60	1.851
414.82	2.027
415.03	1.715
415.25	-0.000
415.46	2.187
415.68	1.726
415.89	1.722
416.10	1.793
416.32	1.754
416.53	1.639
416.75	1.829
416.96	1.813
417.18	1.990
417.39	2.236
417.60	-0.000
417.82	3.525
418.03	-0.000
418.25	-0.000
418.46	3.826
418.67	-0.000
418.89	-0.000
419.10	-0.000
419.32	-0.000
419.53	-0.000
419.75	-0.000
419.96	-0.000
420.17	-0.000
420.39	-0.000
420.60	-0.000
420.82	-0.000
421.03	-0.000
421.24	-0.000
421.46	-0.000
421.67	-0.000
421.89	-0.000
422.10	-0.000
422.31	-0.000
422.53	-0.000
422.74	-0.000
422.96	-0.000
423.17	-0.000
423.38	-0.000
423.60	-0.000
423.81	-0.000
424.03	2.016
424.24	2.118
424.45	-0.000
424.67	2.808
424.88	2.262
425.09	3.460
425.31	2.351
425.52	1.894
425.74	2.474
425.95	3.542
426.16	-0.000
426.38	-0.000
426.59	-0.000
426.80	-0.000
427.02	2.550
427.23	-0.000
427.45	-0.000
427.66	-0.000
427.87	-0.000
428.09	-0.000
428.30	-0.000
428.51	-0.000
428.73	-0.000
428.94	-0.000
429.15	-0.000
429.37	-0.000
429.58	-0.000
429.79	-0.000
430.01	-0.000
430.22	-0.000
430.44	2.802
430.65	2.152
430.86	2.308
431.08	2.187
431.29	3.843
431.50	-0.000
431.72	-0.000
431.93	2.902
432.14	3.222
432.36	-0.000
432.57	-0.000
432.78	-0.000
433.00	2.850
433.21	2.242
433.42	2.186
433.64	2.010
433.85	1.939
434.06	2.039
434.28	2.878
434.49	-0.000
434.70	-0.000
434.92	-0.000
435.13	-0.000
435.34	-0.000
435.56	2.552
435.77	2.216
435.98	2.575
436.20	2.200
436.41	2.629
436.62	1.952
436.83	1.961
437.05	1.943
437.26	1.855
437.47	1.879
437.69	1.792
437.90	1.746
438.11	1.869
438.33	1.839
438.54	1.702
438.75	1.679
438.97	1.618
439.18	1.573
439.39	1.677
439.60	1.640
439.82	1.615
440.03	1.611
440.24	1.641
440.46	1.606
440.67	1.618
440.88	1.524
441.10	1.632
441.31	1.619
441.52	1.639
441.73	1.666
441.95	1.635
442.16	1.782
442.37	1.997
442.58	1.804
442.80	1.821
443.01	1.937
443.22	1.939
443.44	1.929
443.65	2.010
443.86	1.928
444.07	1.826
444.29	1.842
444.50	2.082
444.71	2.049
444.92	2.057
445.14	2.010
445.35	2.296
445.56	2.062
445.78	2.131
445.99	2.171
446.20	2.191
446.41	2.221
446.63	2.100
446.84	1.913
447.05	1.919
447.26	1.915
447.48	1.964
447.69	1.933
447.90	1.820
448.11	1.766
448.33	1.801
448.54	1.795
448.75	1.782
448.96	1.670
449.18	1.675
449.39	1.724
449.60	1.690
449.81	1.649
450.03	1.704
450.24	1.658
450.45	1.695
450.66	1.677
450.87	1.638
451.09	1.727
451.30	1.756
451.51	1.822
451.72	1.794
451.94	1.732
452.15	1.724
452.36	1.781
452.57	1.879
452.78	1.859
453.00	2.022
453.21	2.258
453.42	2.414
453.63	2.197
453.85	2.129
454.06	2.225
454.27	2.177
454.48	2.383
454.69	2.311
454.91	2.195
455.12	2.423
455.33	-0.000
455.54	2.379
455.75	2.081
455.97	2.144
456.18	2.106
456.39	2.042
456.60	2.096
456.81	2.215
457.03	1.954
457.24	1.895
457.45	1.905
457.66	1.845
457.87	1.851
458.09	1.896
458.30	1.910
458.51	1.943
458.72	1.995
458.93	1.832
459.15	1.960
459.36	1.963
459.57	1.818
459.78	1.752
459.99	1.809
460.20	1.857
460.42	1.801
460.63	1.846
460.84	1.939
461.05	1.861
461.26	1.820
461.47	1.933
461.69	2.007
461.90	1.885
462.11	1.895
462.32	1.840
462.53	1.846
462.74	1.797
462.96	1.751
463.17	1.774
463.38	1.814
463.59	1.690
463.80	1.656
464.01	1.727
464.23	1.758
464.44	1.726
464.65	1.714
464.86	1.708
465.07	1.742
465.28	1.753
465.49	1.846
465.71	1.840
465.92	1.785
466.13	1.793
466.34	1.800
466.55	1.799
466.76	1.860
466.97	1.881
467.19	1.897
467.40	1.895
467.61	1.848
467.82	1.807
468.03	1.906
468.24	1.934
468.45	1.843
468.66	1.850
468.88	1.896
469.09	1.917
469.30	1.879
469.51	1.846
469.72	1.847
469.93	1.805
470.14	1.811
470.35	1.856
470.57	1.879
470.78	1.924
470.99	1.951
471.20	1.871
471.41	1.860
471.62	1.933
471.83	1.907
472.04	1.873
472.25	1.926
472.47	1.907
472.68	1.920
472.89	1.915
473.10	1.863
473.31	1.839
473.52	1.879
473.73	1.957
473.94	1.903
474.15	1.844
474.36	1.814
474.57	1.811
474.79	1.815
475.00	1.763
475.21	1.724
475.42	1.708
475.63	1.759
475.84	1.785
476.05	1.735
476.26	1.762
476.47	1.807
476.68	1.831
476.89	1.823
477.10	1.838
477.32	1.874
477.53	1.909
477.74	1.917
477.95	1.864
478.16	1.836
478.37	1.874
478.58	1.874
478.79	1.922
479.00	1.913
479.21	1.908
479.42	1.874
479.63	1.892
479.84	1.869
480.05	1.820
480.26	1.807
480.47	1.792
480.69	1.776
480.90	1.780
481.11	1.761
481.32	1.775
481.53	1.753
481.74	1.756
481.95	1.746
482.16	1.738
482.37	1.739
482.58	1.727
482.79	1.740
483.00	1.758
483.21	1.726
483.42	1.722
483.63	1.724
483.84	1.771
484.05	1.775
484.26	1.819
484.47	1.858
484.68	1.854
484.89	1.868
485.10	1.858
485.31	1.858
485.52	1.834
485.73	1.788
485.94	1.831
486.15	1.803
486.37	1.806
486.58	1.820
486.79	1.815
487.00	1.828
487.21	1.817
487.42	1.798
487.63	1.798
487.84	1.797
488.05	1.800
488.26	1.786
488.47	1.791
488.68	1.780
488.89	1.763
489.10	1.753
489.31	1.763
489.52	1.778
489.73	1.789
489.94	1.808
490.15	1.838
490.36	1.797
490.57	1.792
490.78	1.804
490.99	1.798
491.20	1.800
491.41	1.804
491.62	1.794
491.83	1.820
492.04	1.844
492.25	1.860
492.45	1.864
492.66	1.848
492.87	1.818
493.08	1.811
493.29	1.818
493.50	1.812
493.71	1.806
493.92	1.808
494.13	1.782
494.34	1.779
494.55	1.782
494.76	1.794
494.97	1.827
495.18	1.823
495.39	1.806
495.60	1.819
495.81	1.801
496.02	1.808
496.23	1.806
496.44	1.802
496.65	1.781
496.86	1.777
497.07	1.795
497.28	1.819
497.49	1.808
497.70	1.817
497.91	1.818
498.12	1.828
498.32	1.822
498.53	1.853
498.74	1.868
498.95	1.869
499.16	1.877
499.37	1.843
499.58	1.839
499.79	1.851
500.00	1.860
500.21	1.878
500.42	1.870
500.63	1.864
500.84	1.846
501.05	1.859
501.26	1.864
501.46	1.879
501.67	1.870
501.88	1.896
502.09	1.860
502.30	1.864
502.51	1.877
502.72	1.903
502.93	1.890
503.14	1.877
503.35	1.878
503.56	1.881
503.77	1.909
503.97	1.906
504.18	1.925
504.39	1.924
504.60	1.941
504.81	1.942
505.02	1.944
505.23	1.965
505.44	1.967
505.65	1.972
505.86	1.958
506.07	1.984
506.27	1.995
506.48	2.019
506.69	2.024
506.90	2.003
507.11	2.030
507.32	2.047
507.53	2.074
507.74	2.062
507.95	2.057
508.15	2.074
508.36	2.060
508.57	2.048
508.78	2.043
508.99	2.053
509.20	2.048
509.41	2.017
509.62	2.028
509.82	2.030
510.03	2.003
510.24	2.005
510.45	1.997
510.66	1.974
510.87	1.980
511.08	1.983
511.29	2.003
511.49	1.967
511.70	1.958
511.91	1.945
512.12	1.947
512.33	1.949
512.54	1.938
512.75	1.944
512.95	1.932
513.16	1.933
513.37	1.932
513.58	1.933
513.79	1.977
514.00	1.966
514.20	1.970
514.41	1.986
514.62	2.000
514.83	1.987
515.04	1.984
515.25	1.981
515.46	1.977
515.66	1.952
515.87	1.951
516.08	1.928
516.29	1.925
516.50	1.938
516.71	1.937
516.91	1.933
517.12	1.946
517.33	1.966
517.54	1.983
517.75	1.974
517.95	2.001
518.16	1.993
518.37	1.997
518.58	2.013
518.79	2.040
519.00	2.029
519.20	2.046
519.41	2.067
519.62	2.086
519.83	2.112
520.04	2.120
520.24	2.116
520.45	2.146
520.66	2.175
520.87	2.177
521.08	2.214
521.28	2.223
521.49	2.212
521.70	2.230
521.91	2.186
522.12	2.189
522.32	2.198
522.53	2.202
522.74	2.201
522.95	2.172
523.16	2.145
523.36	2.127
523.57	2.105
523.78	2.098
523.99	2.108
524.20	2.096
524.40	2.123
524.61	2.127
524.82	2.114
525.03	2.112
525.23	2.123
525.44	2.111
525.65	2.134
525.86	2.164
526.06	2.170
526.27	2.192
526.48	2.181
526.69	2.181
526.90	2.160
527.10	2.150
527.31	2.151
527.52	2.162
527.73	2.170
527.93	2.192
528.14	2.170
528.35	2.163
528.56	2.140
528.76	2.140
528.97	2.155
529.18	2.150
529.39	2.130
529.59	2.117
529.80	2.087
530.01	2.083
530.22	2.059
530.42	2.031
530.63	2.027
530.84	2.021
531.05	2.002
531.25	2.011
531.46	2.021
531.67	2.016
531.88	1.995
532.08	2.002
532.29	1.992
532.50	1.994
532.70	1.985
532.91	2.001
533.12	1.990
533.33	1.984
533.53	1.978
533.74	1.982
533.95	1.994
534.15	1.989
534.36	1.964
534.57	1.979
534.78	1.989
534.98	1.986
535.19	1.977
535.40	1.976
535.60	1.956
535.81	1.949
536.02	1.959
536.23	1.982
536.43	1.982
536.64	1.989
536.85	2.000
537.05	1.997
537.26	1.989
537.47	1.989
537.67	1.991
537.88	2.014
538.09	2.009
538.30	2.002
538.50	2.009
538.71	2.034
538.92	2.018
539.12	2.007
539.33	2.002
539.54	2.013
539.74	2.019
539.95	2.036
540.16	2.038
540.36	2.047
540.57	2.030
540.78	2.013
540.98	2.006
541.19	2.015
541.40	2.021
541.60	2.022
541.81	2.027
542.02	2.019
542.22	2.004
542.43	2.005
542.64	2.008
542.84	2.010
543.05	1.998
543.26	2.016
543.46	2.025
543.67	2.046
543.88	2.052
544.08	2.043
544.29	2.036
544.50	2.042
544.70	2.020
544.91	2.022
545.12	2.032
545.32	2.041
545.53	2.031
545.74	2.013
545.94	2.026
546.15	2.016
546.35	2.014
546.56	2.002
546.77	2.017
546.97	2.003
547.18	2.012
547.39	2.021
547.59	2.015
547.80	2.011
548.01	1.992
548.21	1.986
548.42	1.974
548.62	1.998
548.83	1.988
549.04	2.016
549.24	2.023
549.45	2.037
549.65	2.029
549.86	2.026
550.07	2.035
550.27	2.022
550.48	2.017
550.69	2.022
550.89	2.043
551.10	2.026
551.30	2.030
551.51	2.033
551.72	2.032
551.92	2.028
552.13	2.034
552.33	2.051
552.54	2.058
552.75	2.069
552.95	2.038
553.16	2.041
553.36	2.024
553.57	2.005
553.78	2.004
553.98	2.011
554.19	2.010
554.39	2.013
554.60	2.019
554.80	2.021
555.01	2.022
555.22	2.015
555.42	2.020
555.63	2.015
555.83	2.022
556.04	2.036
556.25	2.032
556.45	2.034
556.66	2.025
556.86	2.027
557.07	2.032
557.27	2.045
557.48	2.040
557.68	2.038
557.89	2.047
558.10	2.042
558.30	2.030
558.51	2.026
558.71	2.023
558.92	2.022
559.12	2.033
559.33	2.035
559.54	2.027
559.74	2.024
559.95	2.020
560.15	2.003
560.36	1.974
560.56	1.968
560.77	1.963
560.97	1.950
561.18	1.947
561.38	1.939
561.59	1.940
561.79	1.947
562.00	1.938
562.21	1.938
562.41	1.944
562.62	1.939
562.82	1.940
563.03	1.939
563.23	1.926
563.44	1.918
563.64	1.923
563.85	1.931
564.05	1.927
564.26	1.934
564.46	1.942
564.67	1.957
564.87	1.959
565.08	1.972
565.28	1.978
565.49	1.974
565.69	1.984
565.90	1.981
566.10	1.975
566.31	1.993
566.51	1.986
566.72	1.969
566.92	1.973
567.13	1.967
567.33	1.970
567.54	1.992
567.74	2.003
567.95	1.996
568.15	1.990
568.36	1.998
568.56	1.996
568.77	1.992
568.97	1.976
569.18	1.975
569.38	1.964
569.59	1.974
569.79	1.966
570.00	1.971
570.20	1.970
570.41	1.976
570.61	1.966
570.82	1.969
571.02	1.984
571.23	1.991
571.43	2.012
571.64	2.020
571.84	2.004
572.05	2.005
572.25	2.002
572.45	2.005
572.66	1.994
572.86	1.998
573.07	1.998
573.27	2.001
573.48	1.992
573.68	1.999
573.89	1.979
574.09	1.983
574.30	1.968
574.50	1.964
574.70	1.959
574.91	1.966
575.11	1.967
575.32	1.963
575.52	1.974
575.73	1.970
575.93	1.956
576.14	1.955
576.34	1.946
576.54	1.949
576.75	1.947
576.95	1.964
577.16	1.969
577.36	1.967
577.57	1.972
577.77	1.972
577.97	1.961
578.18	1.974
578.38	1.980
578.59	1.982
578.79	1.990
579.00	1.995
579.20	1.997
579.40	2.002
579.61	2.005
579.81	1.985
580.02	1.982
580.22	1.995
580.42	1.993
580.63	1.995
580.83	1.984
581.04	1.980
581.24	1.964
581.45	1.949
581.65	1.953
581.85	1.963
582.06	1.972
582.26	1.967
582.47	1.968
582.67	1.970
582.87	1.962
583.08	1.955
583.28	1.953
583.48	1.955
583.69	1.949
583.89	1.949
584.10	1.957
584.30	1.954
584.50	1.952
584.71	1.954
584.91	1.953
585.12	1.948
585.32	1.954
585.52	1.963
585.73	1.965
585.93	1.957
586.13	1.955
586.34	1.955
586.54	1.974
586.75	1.975
586.95	1.970
587.15	1.980
587.36	1.985
587.56	1.985
587.76	1.985
587.97	1.991
588.17	1.987
588.37	1.983
588.58	1.974
588.78	1.975
588.98	1.981
589.19	1.986
589.39	2.007
589.60	2.003
589.80	1.995
590.00	1.998
590.21	2.008
590.41	1.995
590.61	1.988
590.82	1.975
591.02	1.964
591.22	1.966
591.43	1.968
591.63	1.971
591.83	1.974
592.04	1.965
592.24	1.958
592.44	1.956
592.65	1.958
592.85	1.964
593.05	1.957
593.26	1.949
593.46	1.933
593.66	1.930
593.86	1.926
594.07	1.931
594.27	1.931
594.47	1.923
594.68	1.924
594.88	1.929
595.08	1.934
595.29	1.942
595.49	1.940
595.69	1.935
595.90	1.931
596.10	1.928
596.30	1.928
596.50	1.934
596.71	1.933
596.91	1.938
597.11	1.934
597.32	1.941
597.52	1.943
597.72	1.958
597.93	1.947
598.13	1.956
598.33	1.958
598.53	1.949
598.74	1.948
598.94	1.952
599.14	1.946
599.35	1.941
599.55	1.944
599.75	1.944
599.95	1.948
600.16	1.950
600.36	1.952
600.56	1.946
600.76	1.944
600.97	1.947
601.17	1.941
601.37	1.949
601.58	1.945
601.78	1.949
601.98	1.952
602.18	1.959
602.39	1.954
602.59	1.951
602.79	1.963
602.99	1.966
603.20	1.967
603.40	1.969
603.60	1.973
603.80	1.970
604.01	1.972
604.21	1.979
604.41	1.981
604.61	1.984
604.82	1.998
605.02	1.995
605.22	1.995
605.42	2.006
605.62	1.996
605.83	1.990
606.03	2.000
606.23	1.997
606.43	2.003
606.64	2.006
606.84	1.997
607.04	1.994
607.24	1.993
607.45	1.982
607.65	1.988
607.85	1.977
608.05	1.979
608.25	1.976
608.46	1.977
608.66	1.974
608.86	1.981
609.06	1.975
609.26	1.977
609.47	1.982
609.67	1.975
609.87	1.981
610.07	1.986
610.28	1.974
610.48	1.971
610.68	1.962
610.88	1.958
611.08	1.959
611.29	1.958
611.49	1.960
611.69	1.970
611.89	1.968
612.09	1.973
612.29	1.969
612.50	1.971
612.70	1.963
612.90	1.964
613.10	1.959
613.30	1.962
613.51	1.961
613.71	1.957
613.91	1.954
614.11	1.950
614.31	1.951
614.51	1.951
614.72	1.953
614.92	1.964
615.12	1.968
615.32	1.969
615.52	1.974
615.72	1.972
615.93	1.974
616.13	1.973
616.33	1.979
616.53	1.988
616.73	1.989
616.93	1.992
617.14	1.989
617.34	1.981
617.54	1.983
617.74	1.982
617.94	1.982
618.14	1.977
618.34	1.976
618.55	1.973
618.75	1.975
618.95	1.969
619.15	1.961
619.35	1.964
619.55	1.971
619.75	1.971
619.96	1.979
620.16	1.976
620.36	1.979
620.56	1.980
620.76	1.971
620.96	1.972
621.16	1.972
621.36	1.969
621.57	1.965
621.77	1.958
621.97	1.960
622.17	1.953
622.37	1.968
622.57	1.975
622.77	1.980
622.97	1.982
623.18	1.984
623.38	1.984
623.58	1.979
623.78	1.984
623.98	1.974
624.18	1.970
624.38	1.967
624.58	1.964
624.78	1.962
624.98	1.962
625.19	1.958
625.39	1.954
625.59	1.956
625.79	1.961
625.99	1.965
626.19	1.968
626.39	1.967
626.59	1.963
626.79	1.965
626.99	1.961
627.19	1.964
627.40	1.968
627.60	1.967
627.80	1.968
628.00	1.961
628.20	1.973
628.40	1.965
628.60	1.966
628.80	1.969
629.00	1.964
629.20	1.966
629.40	1.970
629.60	1.970
629.80	1.974
630.00	1.974
630.20	1.972
630.41	1.962
630.61	1.969
630.81	1.971
631.01	1.964
631.21	1.966
631.41	1.967
