SpectraSuite Data File
++++++++++++++++++++++++++++++++++++
Date: Mon May 06 14:18:15 CDT 2013
User: Students
Dark Spectrum Present: Yes
Reference Spectrum Present: Yes
Number of Sampled Component Spectra: 1
Spectrometers: USB4H00887
Integration Time (usec): 25000 (USB4H00887)
Spectra Averaged: 10 (USB4H00887)
Boxcar Smoothing: 10 (USB4H00887)
Correct for Electrical Dark: No (USB4H00887)
Strobe/Lamp Enabled: No (USB4H00887)
Correct for Detector Non-linearity: No (USB4H00887)
Correct for Stray Light: No (USB4H00887)
Number of Pixels in Processed Spectrum: 3648
>>>>>Begin Processed Spectral Data<<<<<
345.83	0.380
346.05	0.380
346.26	0.380
346.48	-0.327
346.70	0.088
346.92	-0.000
347.14	0.771
347.35	0.217
347.57	-0.826
347.79	0.101
348.01	-0.099
348.23	-0.067
348.44	-0.034
348.66	0.031
348.88	0.097
349.10	0.070
349.32	0.017
349.53	0.016
349.75	-0.028
349.97	0.077
350.19	0.144
350.41	0.345
350.62	0.335
350.84	0.754
351.06	-0.000
351.28	1.059
351.50	1.117
351.71	1.213
351.93	-0.000
352.15	-0.000
352.37	-0.000
352.58	-0.000
352.80	-0.000
353.02	-0.000
353.24	-0.000
353.46	-0.000
353.67	-0.000
353.89	-0.000
354.11	-0.000
354.33	-0.000
354.54	-0.000
354.76	-0.000
354.98	-0.000
355.20	-0.000
355.41	-0.000
355.63	-0.000
355.85	-0.000
356.07	-0.000
356.28	-0.000
356.50	1.981
356.72	1.797
356.94	-0.000
357.15	1.371
357.37	1.596
357.59	0.888
357.81	0.727
358.02	1.306
358.24	1.253
358.46	1.378
358.68	1.229
358.89	0.869
359.11	0.757
359.33	0.785
359.55	0.607
359.76	0.533
359.98	0.495
360.20	0.578
360.42	0.615
360.63	0.599
360.85	0.536
361.07	0.547
361.29	0.438
361.50	0.452
361.72	0.521
361.94	0.468
362.15	0.677
362.37	0.609
362.59	0.397
362.81	0.469
363.02	0.479
363.24	0.482
363.46	0.512
363.68	0.503
363.89	0.558
364.11	0.611
364.33	0.619
364.54	0.752
364.76	0.706
364.98	0.634
365.20	0.617
365.41	0.738
365.63	0.722
365.85	0.957
366.06	0.680
366.28	0.832
366.50	0.693
366.71	0.647
366.93	0.898
367.15	1.032
367.37	0.759
367.58	0.663
367.80	0.681
368.02	0.707
368.23	1.571
368.45	1.142
368.67	0.935
368.88	1.089
369.10	1.060
369.32	0.850
369.53	0.764
369.75	1.022
369.97	0.662
370.19	0.655
370.40	0.661
370.62	0.640
370.84	0.439
371.05	0.483
371.27	0.442
371.49	0.452
371.70	0.489
371.92	0.576
372.14	0.549
372.35	0.616
372.57	0.660
372.79	0.560
373.00	0.675
373.22	0.903
373.44	0.920
373.65	1.219
373.87	-0.000
374.09	-0.000
374.30	1.274
374.52	-0.000
374.74	-0.000
374.95	-0.000
375.17	-0.000
375.39	-0.000
375.60	-0.000
375.82	-0.000
376.04	-0.000
376.25	-0.000
376.47	-0.000
376.68	-0.000
376.90	-0.000
377.12	-0.000
377.33	-0.000
377.55	-0.000
377.77	-0.000
377.98	-0.000
378.20	-0.000
378.42	-0.000
378.63	-0.000
378.85	-0.000
379.07	-0.000
379.28	-0.000
379.50	-0.000
379.71	-0.000
379.93	-0.000
380.15	-0.000
380.36	-0.000
380.58	-0.000
380.80	-0.000
381.01	-0.000
381.23	-0.000
381.44	-0.000
381.66	-0.000
381.88	-0.000
382.09	-0.000
382.31	-0.000
382.53	-0.000
382.74	-0.000
382.96	-0.000
383.17	-0.000
383.39	-0.000
383.61	-0.000
383.82	-0.000
384.04	-0.000
384.25	-0.000
384.47	-0.000
384.69	-0.000
384.90	-0.000
385.12	-0.000
385.33	-0.000
385.55	-0.000
385.77	-0.000
385.98	-0.000
386.20	-0.000
386.41	-0.000
386.63	-0.000
386.85	-0.000
387.06	-0.000
387.28	-0.000
387.49	-0.000
387.71	-0.000
387.93	-0.000
388.14	-0.000
388.36	-0.000
388.57	-0.000
388.79	-0.000
389.01	1.381
389.22	1.635
389.44	1.630
389.65	1.563
389.87	-0.000
390.08	1.676
390.30	1.197
390.52	1.052
390.73	1.057
390.95	1.000
391.16	1.018
391.38	1.005
391.59	1.547
391.81	1.537
392.03	1.174
392.24	1.588
392.46	1.341
392.67	1.371
392.89	1.887
393.10	1.675
393.32	1.508
393.53	-0.000
393.75	-0.000
393.97	1.650
394.18	1.327
394.40	1.606
394.61	1.803
394.83	-0.000
395.04	-0.000
395.26	-0.000
395.47	-0.000
395.69	-0.000
395.91	-0.000
396.12	-0.000
396.34	3.032
396.55	-0.000
396.77	1.563
396.98	1.679
397.20	1.295
397.41	1.265
397.63	1.280
397.84	1.480
398.06	1.335
398.27	1.183
398.49	1.087
398.71	1.217
398.92	1.099
399.14	1.109
399.35	0.973
399.57	1.019
399.78	0.971
400.00	0.991
400.21	0.915
400.43	0.864
400.64	0.899
400.86	0.894
401.07	0.950
401.29	0.960
401.50	1.035
401.72	1.245
401.93	1.230
402.15	1.279
402.36	1.269
402.58	1.159
402.79	1.305
403.01	1.375
403.22	1.201
403.44	1.176
403.65	1.199
403.87	1.258
404.08	1.389
404.30	1.704
404.51	1.317
404.73	1.521
404.94	1.844
405.16	1.588
405.37	1.810
405.59	1.603
405.80	1.681
406.02	1.633
406.23	1.525
406.45	1.481
406.66	1.724
406.88	1.760
407.09	2.799
407.31	2.451
407.52	2.822
407.74	-0.000
407.95	-0.000
408.17	-0.000
408.38	-0.000
408.60	-0.000
408.81	-0.000
409.03	-0.000
409.24	-0.000
409.45	-0.000
409.67	-0.000
409.88	-0.000
410.10	-0.000
410.31	-0.000
410.53	-0.000
410.74	-0.000
410.96	-0.000
411.17	-0.000
411.39	-0.000
411.60	-0.000
411.82	-0.000
412.03	-0.000
412.24	-0.000
412.46	-0.000
412.67	-0.000
412.89	-0.000
413.10	-0.000
413.32	-0.000
413.53	-0.000
413.75	1.959
413.96	2.160
414.17	1.679
414.39	1.474
414.60	1.441
414.82	1.398
415.03	1.334
415.25	1.385
415.46	1.352
415.68	1.285
415.89	1.323
416.10	1.282
416.32	1.258
416.53	1.169
416.75	1.152
416.96	1.100
417.18	1.151
417.39	1.112
417.60	1.087
417.82	1.145
418.03	1.196
418.25	1.274
418.46	1.349
418.67	1.370
418.89	1.518
419.10	1.458
419.32	1.616
419.53	1.745
419.75	1.875
419.96	1.629
420.17	1.765
420.39	1.773
420.60	1.941
420.82	2.165
421.03	-0.000
421.24	-0.000
421.46	-0.000
421.67	-0.000
421.89	-0.000
422.10	-0.000
422.31	-0.000
422.53	-0.000
422.74	2.328
422.96	1.791
423.17	1.638
423.38	1.607
423.60	1.611
423.81	1.613
424.03	1.541
424.24	1.509
424.45	1.736
424.67	1.578
424.88	1.572
425.09	1.496
425.31	1.472
425.52	1.348
425.74	1.464
425.95	1.390
426.16	1.419
426.38	1.476
426.59	1.603
426.80	1.542
427.02	1.660
427.23	1.687
427.45	1.959
427.66	2.048
427.87	-0.000
428.09	2.392
428.30	2.186
428.51	2.391
428.73	2.008
428.94	1.812
429.15	2.007
429.37	1.980
429.58	2.646
429.79	2.045
430.01	3.343
430.22	1.881
430.44	1.953
430.65	1.698
430.86	1.717
431.08	1.651
431.29	2.000
431.50	1.844
431.72	2.033
431.93	1.673
432.14	1.876
432.36	1.701
432.57	1.716
432.78	1.690
433.00	1.735
433.21	1.717
433.42	1.598
433.64	1.552
433.85	1.515
434.06	1.498
434.28	1.579
434.49	1.636
434.70	1.629
434.92	1.531
435.13	1.636
435.34	1.539
435.56	1.536
435.77	1.485
435.98	1.547
436.20	1.509
436.41	1.554
436.62	1.439
436.83	1.512
437.05	1.491
437.26	1.485
437.47	1.495
437.69	1.474
437.90	1.541
438.11	1.573
438.33	1.554
438.54	1.513
438.75	1.505
438.97	1.455
439.18	1.446
439.39	1.526
439.60	1.478
439.82	1.514
440.03	1.507
440.24	1.539
440.46	1.440
440.67	1.431
440.88	1.414
441.10	1.443
441.31	1.393
441.52	1.427
441.73	1.458
441.95	1.455
442.16	1.534
442.37	1.587
442.58	1.523
442.80	1.551
443.01	1.567
443.22	1.655
443.44	1.618
443.65	1.677
443.86	1.638
444.07	1.622
444.29	1.613
444.50	1.699
444.71	1.650
444.92	1.784
445.14	1.801
445.35	1.807
445.56	1.828
445.78	1.815
445.99	1.820
446.20	1.850
446.41	1.894
446.63	1.853
446.84	1.783
447.05	1.822
447.26	1.844
447.48	1.790
447.69	1.645
447.90	1.600
448.11	1.616
448.33	1.648
448.54	1.656
448.75	1.694
448.96	1.629
449.18	1.617
449.39	1.594
449.60	1.604
449.81	1.641
450.03	1.669
450.24	1.630
450.45	1.667
450.66	1.602
450.87	1.585
451.09	1.591
451.30	1.617
451.51	1.608
451.72	1.578
451.94	1.538
452.15	1.575
452.36	1.596
452.57	1.592
452.78	1.555
453.00	1.641
453.21	1.612
453.42	1.597
453.63	1.593
453.85	1.566
454.06	1.527
454.27	1.527
454.48	1.527
454.69	1.586
454.91	1.564
455.12	1.576
455.33	1.537
455.54	1.493
455.75	1.436
455.97	1.431
456.18	1.448
456.39	1.489
456.60	1.483
456.81	1.488
457.03	1.459
457.24	1.454
457.45	1.426
457.66	1.435
457.87	1.410
458.09	1.416
458.30	1.415
458.51	1.421
458.72	1.428
458.93	1.409
459.15	1.396
459.36	1.384
459.57	1.380
459.78	1.415
459.99	1.436
460.20	1.469
460.42	1.505
460.63	1.503
460.84	1.480
461.05	1.468
461.26	1.463
461.47	1.439
461.69	1.415
461.90	1.417
462.11	1.398
462.32	1.395
462.53	1.368
462.74	1.369
462.96	1.358
463.17	1.357
463.38	1.370
463.59	1.349
463.80	1.352
464.01	1.356
464.23	1.357
464.44	1.351
464.65	1.327
464.86	1.312
465.07	1.326
465.28	1.342
465.49	1.356
465.71	1.352
465.92	1.380
466.13	1.412
466.34	1.384
466.55	1.402
466.76	1.411
466.97	1.433
467.19	1.412
467.40	1.416
467.61	1.404
467.82	1.395
468.03	1.438
468.24	1.436
468.45	1.416
468.66	1.402
468.88	1.408
469.09	1.425
469.30	1.412
469.51	1.399
469.72	1.390
469.93	1.366
470.14	1.375
470.35	1.372
470.57	1.372
470.78	1.394
470.99	1.396
471.20	1.397
471.41	1.400
471.62	1.427
471.83	1.411
472.04	1.405
472.25	1.403
472.47	1.382
472.68	1.371
472.89	1.375
473.10	1.375
473.31	1.377
473.52	1.389
473.73	1.406
473.94	1.406
474.15	1.405
474.36	1.420
474.57	1.410
474.79	1.413
475.00	1.418
475.21	1.418
475.42	1.407
475.63	1.420
475.84	1.424
476.05	1.434
476.26	1.447
476.47	1.450
476.68	1.453
476.89	1.440
477.10	1.438
477.32	1.432
477.53	1.420
477.74	1.408
477.95	1.394
478.16	1.397
478.37	1.397
478.58	1.383
478.79	1.380
479.00	1.382
479.21	1.368
479.42	1.337
479.63	1.321
479.84	1.325
480.05	1.311
480.26	1.313
480.47	1.289
480.69	1.289
480.90	1.297
481.11	1.297
481.32	1.306
481.53	1.313
481.74	1.325
481.95	1.339
482.16	1.346
482.37	1.344
482.58	1.330
482.79	1.328
483.00	1.335
483.21	1.338
483.42	1.332
483.63	1.335
483.84	1.352
484.05	1.361
484.26	1.359
484.47	1.366
484.68	1.357
484.89	1.366
485.10	1.363
485.31	1.365
485.52	1.369
485.73	1.355
485.94	1.357
486.15	1.345
486.37	1.342
486.58	1.347
486.79	1.348
487.00	1.348
487.21	1.349
487.42	1.349
487.63	1.347
487.84	1.346
488.05	1.354
488.26	1.352
488.47	1.349
488.68	1.351
488.89	1.345
489.10	1.340
489.31	1.340
489.52	1.345
489.73	1.348
489.94	1.340
490.15	1.347
490.36	1.342
490.57	1.347
490.78	1.352
490.99	1.349
491.20	1.347
491.41	1.348
491.62	1.347
491.83	1.349
492.04	1.344
492.25	1.351
492.45	1.347
492.66	1.344
492.87	1.340
493.08	1.344
493.29	1.347
493.50	1.350
493.71	1.355
493.92	1.350
494.13	1.331
494.34	1.336
494.55	1.337
494.76	1.338
494.97	1.340
495.18	1.337
495.39	1.332
495.60	1.329
495.81	1.330
496.02	1.330
496.23	1.330
496.44	1.332
496.65	1.329
496.86	1.331
497.07	1.330
497.28	1.340
497.49	1.331
497.70	1.332
497.91	1.336
498.12	1.334
498.32	1.333
498.53	1.347
498.74	1.354
498.95	1.356
499.16	1.365
499.37	1.358
499.58	1.353
499.79	1.359
500.00	1.367
500.21	1.371
500.42	1.371
500.63	1.374
500.84	1.366
501.05	1.372
501.26	1.375
501.46	1.379
501.67	1.374
501.88	1.381
502.09	1.378
502.30	1.374
502.51	1.376
502.72	1.388
502.93	1.392
503.14	1.386
503.35	1.385
503.56	1.381
503.77	1.384
503.97	1.386
504.18	1.383
504.39	1.384
504.60	1.387
504.81	1.389
505.02	1.384
505.23	1.398
505.44	1.392
505.65	1.389
505.86	1.392
506.07	1.401
506.27	1.410
506.48	1.414
506.69	1.415
506.90	1.414
507.11	1.416
507.32	1.419
507.53	1.422
507.74	1.422
507.95	1.425
508.15	1.434
508.36	1.428
508.57	1.434
508.78	1.432
508.99	1.430
509.20	1.426
509.41	1.429
509.62	1.426
509.82	1.432
510.03	1.435
510.24	1.433
510.45	1.426
510.66	1.418
510.87	1.421
511.08	1.424
511.29	1.431
511.49	1.425
511.70	1.421
511.91	1.424
512.12	1.424
512.33	1.421
512.54	1.415
512.75	1.419
512.95	1.419
513.16	1.420
513.37	1.423
513.58	1.422
513.79	1.424
514.00	1.428
514.20	1.428
514.41	1.423
514.62	1.429
514.83	1.429
515.04	1.428
515.25	1.427
515.46	1.425
515.66	1.422
515.87	1.422
516.08	1.422
516.29	1.417
516.50	1.420
516.71	1.423
516.91	1.423
517.12	1.421
517.33	1.420
517.54	1.420
517.75	1.419
517.95	1.427
518.16	1.430
518.37	1.426
518.58	1.427
518.79	1.434
519.00	1.429
519.20	1.430
519.41	1.434
519.62	1.433
519.83	1.438
520.04	1.441
520.24	1.440
520.45	1.438
520.66	1.441
520.87	1.436
521.08	1.443
521.28	1.446
521.49	1.450
521.70	1.452
521.91	1.455
522.12	1.458
522.32	1.463
522.53	1.461
522.74	1.465
522.95	1.465
523.16	1.459
523.36	1.463
523.57	1.464
523.78	1.460
523.99	1.465
524.20	1.465
524.40	1.466
524.61	1.467
524.82	1.470
525.03	1.470
525.23	1.477
525.44	1.469
525.65	1.474
525.86	1.474
526.06	1.474
526.27	1.469
526.48	1.464
526.69	1.460
526.90	1.454
527.10	1.454
527.31	1.454
527.52	1.461
527.73	1.452
527.93	1.456
528.14	1.456
528.35	1.452
528.56	1.448
528.76	1.447
528.97	1.448
529.18	1.447
529.39	1.446
529.59	1.446
529.80	1.441
530.01	1.443
530.22	1.448
530.42	1.451
530.63	1.453
530.84	1.456
531.05	1.456
531.25	1.461
531.46	1.458
531.67	1.460
531.88	1.459
532.08	1.467
532.29	1.465
532.50	1.462
532.70	1.464
532.91	1.467
533.12	1.466
533.33	1.470
533.53	1.466
533.74	1.465
533.95	1.462
534.15	1.466
534.36	1.460
534.57	1.457
534.78	1.458
534.98	1.453
535.19	1.450
535.40	1.445
535.60	1.444
535.81	1.440
536.02	1.438
536.23	1.439
536.43	1.437
536.64	1.436
536.85	1.443
537.05	1.438
537.26	1.437
537.47	1.437
537.67	1.432
537.88	1.439
538.09	1.438
538.30	1.445
538.50	1.441
538.71	1.447
538.92	1.444
539.12	1.443
539.33	1.443
539.54	1.445
539.74	1.447
539.95	1.450
540.16	1.452
540.36	1.454
540.57	1.446
540.78	1.446
540.98	1.447
541.19	1.447
541.40	1.453
541.60	1.457
541.81	1.455
542.02	1.451
542.22	1.449
542.43	1.453
542.64	1.445
542.84	1.452
543.05	1.449
543.26	1.452
543.46	1.450
543.67	1.453
543.88	1.450
544.08	1.449
544.29	1.443
544.50	1.445
544.70	1.444
544.91	1.450
545.12	1.450
545.32	1.450
545.53	1.448
545.74	1.445
545.94	1.442
546.15	1.438
546.35	1.441
546.56	1.435
546.77	1.435
546.97	1.437
547.18	1.434
547.39	1.434
547.59	1.433
547.80	1.433
548.01	1.431
548.21	1.434
548.42	1.432
548.62	1.438
548.83	1.434
549.04	1.436
549.24	1.435
549.45	1.439
549.65	1.436
549.86	1.435
550.07	1.434
550.27	1.433
550.48	1.436
550.69	1.433
550.89	1.440
551.10	1.434
551.30	1.431
551.51	1.432
551.72	1.433
551.92	1.431
552.13	1.429
552.33	1.433
552.54	1.431
552.75	1.432
552.95	1.426
553.16	1.425
553.36	1.424
553.57	1.417
553.78	1.415
553.98	1.420
554.19	1.419
554.39	1.423
554.60	1.423
554.80	1.422
555.01	1.420
555.22	1.418
555.42	1.424
555.63	1.425
555.83	1.423
556.04	1.421
556.25	1.422
556.45	1.422
556.66	1.417
556.86	1.418
557.07	1.418
557.27	1.421
557.48	1.421
557.68	1.420
557.89	1.424
558.10	1.424
558.30	1.418
558.51	1.417
558.71	1.414
558.92	1.414
559.12	1.421
559.33	1.424
559.54	1.422
559.74	1.418
559.95	1.420
560.15	1.421
560.36	1.421
560.56	1.419
560.77	1.425
560.97	1.426
561.18	1.423
561.38	1.422
561.59	1.419
561.79	1.423
562.00	1.422
562.21	1.423
562.41	1.421
562.62	1.422
562.82	1.425
563.03	1.424
563.23	1.421
563.44	1.413
563.64	1.415
563.85	1.418
564.05	1.419
564.26	1.417
564.46	1.417
564.67	1.420
564.87	1.420
565.08	1.415
565.28	1.415
565.49	1.419
565.69	1.422
565.90	1.422
566.10	1.423
566.31	1.425
566.51	1.423
566.72	1.421
566.92	1.422
567.13	1.417
567.33	1.416
567.54	1.419
567.74	1.420
567.95	1.418
568.15	1.417
568.36	1.418
568.56	1.417
568.77	1.416
568.97	1.411
569.18	1.412
569.38	1.411
569.59	1.413
569.79	1.409
570.00	1.406
570.20	1.406
570.41	1.405
570.61	1.402
570.82	1.404
571.02	1.405
571.23	1.404
571.43	1.405
571.64	1.407
571.84	1.407
572.05	1.406
572.25	1.406
572.45	1.402
572.66	1.400
572.86	1.403
573.07	1.404
573.27	1.408
573.48	1.405
573.68	1.407
573.89	1.405
574.09	1.407
574.30	1.406
574.50	1.405
574.70	1.404
574.91	1.405
575.11	1.407
575.32	1.407
575.52	1.408
575.73	1.408
575.93	1.404
576.14	1.402
576.34	1.405
576.54	1.406
576.75	1.409
576.95	1.411
577.16	1.410
577.36	1.406
577.57	1.404
577.77	1.402
577.97	1.399
578.18	1.401
578.38	1.400
578.59	1.400
578.79	1.403
579.00	1.402
579.20	1.402
579.40	1.399
579.61	1.400
579.81	1.399
580.02	1.399
580.22	1.401
580.42	1.403
580.63	1.402
580.83	1.400
581.04	1.397
581.24	1.393
581.45	1.391
581.65	1.392
581.85	1.392
582.06	1.395
582.26	1.394
582.47	1.392
582.67	1.392
582.87	1.389
583.08	1.388
583.28	1.389
583.48	1.389
583.69	1.387
583.89	1.385
584.10	1.384
584.30	1.382
584.50	1.384
584.71	1.384
584.91	1.381
585.12	1.381
585.32	1.381
585.52	1.385
585.73	1.385
585.93	1.385
586.13	1.386
586.34	1.384
586.54	1.389
586.75	1.391
586.95	1.392
587.15	1.395
587.36	1.397
587.56	1.394
587.76	1.393
587.97	1.397
588.17	1.395
588.37	1.399
588.58	1.398
588.78	1.398
588.98	1.398
589.19	1.399
589.39	1.401
589.60	1.402
589.80	1.400
590.00	1.400
590.21	1.401
590.41	1.398
590.61	1.397
590.82	1.393
591.02	1.391
591.22	1.392
591.43	1.393
591.63	1.394
591.83	1.395
592.04	1.395
592.24	1.394
592.44	1.395
592.65	1.395
592.85	1.397
593.05	1.397
593.26	1.397
593.46	1.392
593.66	1.394
593.86	1.394
594.07	1.394
594.27	1.392
594.47	1.393
594.68	1.392
594.88	1.393
595.08	1.392
595.29	1.392
595.49	1.390
595.69	1.390
595.90	1.387
596.10	1.389
596.30	1.391
596.50	1.388
596.71	1.385
596.91	1.384
597.11	1.381
597.32	1.381
597.52	1.380
597.72	1.384
597.93	1.383
598.13	1.382
598.33	1.382
598.53	1.382
598.74	1.381
598.94	1.384
599.14	1.385
599.35	1.386
599.55	1.387
599.75	1.389
599.95	1.390
600.16	1.389
600.36	1.388
600.56	1.385
600.76	1.388
600.97	1.392
601.17	1.391
601.37	1.391
601.58	1.392
601.78	1.393
601.98	1.392
602.18	1.391
602.39	1.390
602.59	1.391
602.79	1.392
602.99	1.390
603.20	1.389
603.40	1.388
603.60	1.389
603.80	1.389
604.01	1.387
604.21	1.388
604.41	1.390
604.61	1.388
604.82	1.392
605.02	1.389
605.22	1.387
605.42	1.388
605.62	1.388
605.83	1.385
606.03	1.389
606.23	1.390
606.43	1.391
606.64	1.391
606.84	1.391
607.04	1.390
607.24	1.393
607.45	1.391
607.65	1.392
607.85	1.393
608.05	1.395
608.25	1.395
608.46	1.393
608.66	1.392
608.86	1.395
609.06	1.395
609.26	1.397
609.47	1.399
609.67	1.400
609.87	1.402
610.07	1.406
610.28	1.402
610.48	1.401
610.68	1.399
610.88	1.401
611.08	1.401
611.29	1.401
611.49	1.402
611.69	1.402
611.89	1.400
612.09	1.398
612.29	1.397
612.50	1.399
612.70	1.400
612.90	1.398
613.10	1.399
613.30	1.398
613.51	1.397
613.71	1.399
613.91	1.398
614.11	1.398
614.31	1.400
614.51	1.399
614.72	1.401
614.92	1.403
615.12	1.403
615.32	1.404
615.52	1.405
615.72	1.405
615.93	1.405
616.13	1.405
616.33	1.407
616.53	1.408
616.73	1.406
616.93	1.406
617.14	1.405
617.34	1.401
617.54	1.400
617.74	1.400
617.94	1.399
618.14	1.397
618.34	1.396
618.55	1.392
618.75	1.396
618.95	1.392
619.15	1.391
619.35	1.390
619.55	1.390
619.75	1.389
619.96	1.390
620.16	1.392
620.36	1.391
620.56	1.392
620.76	1.389
620.96	1.391
621.16	1.390
621.36	1.390
621.57	1.393
621.77	1.394
621.97	1.394
622.17	1.392
622.37	1.394
622.57	1.397
622.77	1.399
622.97	1.399
623.18	1.401
623.38	1.402
623.58	1.402
623.78	1.403
623.98	1.401
624.18	1.398
624.38	1.397
624.58	1.398
624.78	1.397
624.98	1.396
625.19	1.395
625.39	1.396
625.59	1.395
625.79	1.394
625.99	1.394
626.19	1.394
626.39	1.395
626.59	1.395
626.79	1.395
626.99	1.395
627.19	1.393
627.40	1.394
627.60	1.393
627.80	1.393
628.00	1.392
628.20	1.394
628.40	1.395
628.60	1.393
628.80	1.394
629.00	1.393
629.20	1.396
629.40	1.398
629.60	1.398
629.80	1.400
630.00	1.402
630.20	1.401
630.41	1.400
630.61	1.402
630.81	1.404
631.01	1.403
631.21	1.403
631.41	1.404
631.61	1.403
631.81	1.404
632.01	1.403
632.21	1.407
632.41	1.408
632.61	1.409
632.81	1.410
633.01	1.411
633.21	1.410
633.41	1.409
